# Acquired by emailing ahmet yildiz
# Data from 2012 DeWitt ... Yildiz paper
# motor-labeled dynein
# from: one color dynein head data/7-16_5uM_3A_spot1_steps ahmet.xlsx
# time (ms)	 position (nm)
1	24.102
2	23.393
3	20.582
4	21.552
5	21.307
6	18.857
7	17.809
8	18.521
9	20.978
10	18.558
11	21.744
12	19.779
13	27.545
14	22.29
15	20.8
16	19.437
17	20.487
18	18.216
19	17.79
20	17.709
21	12.475
22	17.31
23	17.614
24	15.358
25	20.216
26	21.873
27	15.246
28	14.887
29	15.742
30	18.916
31	18.07
32	17.055
33	17.054
34	18.975
35	14.905
36	15.564
37	20.651
38	19.952
39	15.788
40	14.835
41	21.917
42	17.008
43	17.387
44	17.382
45	14.136
46	17.104
47	17.9
48	14.628
49	14.07
50	15.397
51	14.493
52	18.827
53	14.156
54	16.949
55	14.528
56	20.977
57	21.479
58	19.21
59	15.288
60	15.304
61	18.824
62	15.65
63	17.819
64	33.385
65	31.449
66	22.834
67	23.836
68	21.471
69	23.85
70	26.693
71	25.279
72	27.191
73	28.726
74	27.879
75	28.33
76	29.948
77	23.967
78	22.147
79	20.625
80	19.367
81	22.643
82	18.728
83	29.06
84	25.904
85	18.695
86	18.93
87	27.259
88	19.51
89	20.344
90	23.688
91	23.001
92	25.79
93	25.698
94	22.496
95	23.664
96	21.951
97	26.948
98	23.225
99	27.373
100	25.704
101	24.354
102	22.708
103	27.983
104	22.872
105	23.635
106	27.733
107	20.632
108	27.474
109	26.63
110	23.714
111	25.615
112	24.856
113	27.196
114	24.902
115	26.625
116	24.652
117	23.471
118	23.443
119	26.915
120	25.519
121	26.81
122	18.915
123	29.422
124	20.71
125	23.368
126	25.348
127	20.733
128	21.271
129	23.865
130	22.041
131	23.503
132	22.789
133	18.923
134	25.829
135	26.759
136	26.454
137	21.128
138	30.567
139	22.194
140	23.051
141	24.286
142	22.158
143	20.585
144	28.188
145	18.459
146	22.858
147	27.411
148	18.401
149	28.191
150	24.885
151	21.139
152	24.801
153	24.32
154	19.327
155	24.606
156	24.857
157	26.298
158	24.025
159	25.828
160	24.012
161	29.078
162	24.079
163	24.371
164	27.135
165	27.356
166	24.001
167	24.603
168	26.988
169	25.62
170	21.5
171	24.097
172	27.059
173	24.434
174	24.391
175	20.672
176	23.944
177	21.943
178	23.637
179	22.26
180	25.089
181	20.581
182	18.803
183	19.579
184	20.461
185	30.5
186	26.265
187	34.602
188	30.743
189	29.348
190	35.887
191	35.508
192	34.511
193	38.853
194	33.834
195	34.601
196	36.572
197	31.112
198	37.307
199	30.303
200	38.775
201	32.835
202	36.268
203	41.332
204	37.382
205	42.469
206	38.031
207	35.305
208	36.243
209	39.614
210	37.753
211	42.655
212	42.485
213	42.067
214	40.069
215	38.54
216	36.644
217	36.578
218	41.032
219	43.452
220	39.758
221	34.993
222	37.681
223	42.337
224	34.854
225	35.553
226	39.336
227	44.871
228	38.454
229	37.043
230	39.249
231	44.624
232	40.221
233	39.383
234	36.843
235	36.824
236	37.395
237	33.99
238	40.428
239	41.047
240	39.389
241	40.286
242	39.864
243	41.595
244	36.373
245	43.196
246	37.677
247	39.222
248	41.039
249	29.456
250	36.47
251	32.758
252	34.047
253	35.663
254	38.228
255	35.495
256	30.303
257	31.753
258	31.016
259	34.618
260	31.46
261	32.586
262	34.04
263	33.212
264	16.624
265	10.954
266	17.872
267	17.613
268	20.034
269	20.045
270	23.389
271	17.311
272	18.421
273	20.133
274	20.039
275	17.878
276	29.569
277	29.618
278	28.315
279	28.68
280	28.286
281	33.769
282	28.091
283	28.891
284	31.253
285	33.199
286	30.975
287	30.314
288	29.458
289	30.669
290	30.273
291	34.087
292	27.079
293	29.068
294	33.727
295	31.898
296	31.095
297	32.834
298	31.03
299	29.162
300	34.296
301	29.23
302	29.225
303	29.716
304	35.064
305	29.828
306	30.1
307	31.62
308	34.784
309	29.298
310	26.565
311	30.816
312	34.723
313	35.764
314	34.879
315	32.455
316	30.872
317	32.099
318	32.313
319	33.764
320	32.438
321	33.678
322	32.362
323	35.008
324	33.038
325	31.079
326	31.798
327	31.146
328	33.845
329	35.169
330	32.637
331	32.835
332	36.539
333	29.982
334	29.524
335	33.132
336	32.56
337	33.659
338	32.8
339	36.902
340	32.673
341	36.055
342	27.16
343	32.492
344	35.25
345	28.758
346	31.995
347	34.552
348	33.77
349	32.928
350	33.561
351	32.297
352	30.946
353	34.986
354	29.361
355	30.338
356	30.819
357	29.523
358	32.115
359	31.741
360	35.799
361	22.364
362	26.853
363	24.796
364	29.54
365	26.273
366	28.848
367	22.61
368	27.862
369	27.612
370	25.726
371	27.704
372	27.491
373	27.903
374	29.004
375	23.202
376	23.66
377	19.655
378	25.06
379	22.664
380	21.54
381	22.564
382	23.959
383	21.869
384	21.548
385	22.286
386	26.309
387	24.845
388	26.925
389	22.024
390	21.209
391	24.99
392	25.313
393	23.219
394	26.382
395	25.586
396	20.713
397	23.092
398	22.26
399	23.024
400	22.214
401	23.782
402	23.3
403	25.375
404	27.484
405	24.651
406	24.532
407	21.782
408	23.418
409	24.983
410	26.238
411	31.821
412	36.465
413	38.588
414	35.981
415	37.824
416	33.589
417	33.034
418	27.981
419	29.218
420	30.035
421	30.858
422	30.98
423	31.644
424	34.087
425	32.89
426	28.725
427	30.789
428	31.886
429	33.153
430	32.998
431	31.75
432	27.345
433	30.159
434	28.748
435	29.577
436	31.986
437	32.014
438	23.919
439	29.883
440	30.075
441	32.932
442	31.206
443	31.943
444	33.673
445	36.427
446	35.003
447	35.776
448	31.176
449	28.748
450	34.572
451	29.402
452	29.395
453	26.895
454	36.367
455	31.125
456	29.061
457	28.862
458	24.372
459	24.796
460	27.898
461	25.554
462	25.112
463	26.573
464	27.962
465	28.646
466	24.561
467	24.417
468	20.679
469	23.846
470	20.943
471	18.927
472	26.512
473	21.583
474	20.002
475	23.64
476	29.458
477	25.432
478	22.699
479	26.115
480	23.963
481	27.464
482	27.532
483	28.087
484	22.438
485	25.388
486	26.329
487	24.933
488	26.879
489	20.076
490	26.531
491	24.764
492	20.405
493	22.747
494	24.221
495	22.517
496	23.945
497	23.045
498	16.997
499	30.87
500	25.25
501	33.159
502	31.265
503	35.899
504	26.046
505	31.129
506	27.34
507	28.736
508	29.838
509	31.266
510	26.514
511	28.97
512	30.275
513	33.199
514	31.022
515	30.802
516	32.488
517	34.717
518	38.225
519	37.313
520	34.247
521	38.167
522	36.399
523	39.148
524	41.997
525	37.464
526	38.109
527	40.51
528	40.075
529	37.526
530	37.686
531	37.228
532	38.551
533	42.836
534	37.774
535	42.549
536	39.059
537	38.039
538	37.997
539	40.242
540	39.106
541	41.523
542	47.109
543	45.489
544	45.295
545	47.617
546	48.044
547	43.795
548	45.821
549	45.049
550	37.798
551	45.93
552	46.236
553	39.56
554	41.2
555	39.204
556	43.747
557	47.189
558	48.911
559	43.858
560	47.213
561	45.784
562	47.702
563	43.75
564	45.329
565	46.873
566	43.694
567	43.215
568	40.19
569	46.424
570	41.221
571	48.281
572	44.107
573	44.557
574	39.326
575	46.237
576	43.463
577	42.316
578	40.239
579	38.356
580	56.597
581	48.611
582	55.305
583	54.693
584	57.587
585	64.101
586	54.068
587	53.455
588	50.538
589	52.703
590	80.656
591	80.939
592	106.21
593	96.141
594	101.62
595	98.285
596	100.31
597	99.35
598	99.267
599	100.76
600	94.14
601	94.855
602	94.991
603	92.776
604	99.975
605	99.38
606	94.946
607	103.61
608	101.96
609	98.978
610	102.84
611	94.859
612	105.08
613	96.283
614	98.069
615	99.884
616	98.103
617	94.337
618	95.942
619	100.03
620	100.4
621	106.33
622	93.484
623	102.2
624	100.69
625	100.4
626	96.246
627	98.374
628	97.086
629	97.402
630	101.11
631	99.022
632	100.87
633	103.28
634	102.36
635	99.078
636	102.23
637	104.84
638	96.428
639	99.862
640	97.743
641	102.1
642	102.26
643	100.88
644	97.348
645	95.326
646	100.89
647	103.72
648	102.55
649	109.1
650	107.5
651	110.31
652	107.73
653	113.9
654	110.46
655	110.24
656	112.4
657	115.44
658	112.62
659	113.14
660	111.26
661	110.25
662	103.21
663	100.01
664	103.61
665	102.27
666	101.36
667	102.64
668	101.87
669	97.67
670	100.43
671	102.8
672	102.25
673	103.86
674	97.193
675	100.35
676	100.43
677	101.06
678	105.93
679	101.91
680	102.98
681	100.44
682	101.47
683	98.304
684	105.04
685	102.1
686	101.27
687	102.3
688	97.466
689	100.09
690	104.13
691	100.9
692	100.13
693	100.46
694	101.94
695	108.17
696	98.813
697	101.65
698	101.36
699	104.07
700	107.65
701	101.45
702	103.88
703	101.25
704	105.81
705	98.539
706	96.837
707	108.9
708	106.76
709	105.92
710	106.89
711	99.364
712	99.65
713	100.47
714	106.85
715	96.154
716	104.03
717	106.48
718	104.2
719	95.357
720	99.142
721	97.738
722	101.03
723	107.63
724	101.19
725	102.45
726	102.25
727	99.426
728	102.13
729	105.06
730	103.99
731	104.16
732	101.02
733	106
734	100.33
735	101.62
736	105.43
737	103.74
738	105.86
739	102.2
740	104.11
741	103.05
742	96.876
743	89.714
744	103.1
745	107.23
746	106.52
747	106.23
748	106.09
749	101.33
750	104.66
751	104.68
752	103.96
753	104.2
754	107.68
755	103.66
756	105.77
757	100.07
758	101.32
759	104.12
760	106.68
761	103.32
762	103.9
763	105.74
764	107.72
765	106.32
766	102.75
767	101.42
768	100.93
769	100.61
770	111.86
771	102.35
772	104.11
773	104.46
774	101.74
775	102.65
776	101.47
777	105.17
778	105.42
779	103.99
780	112.1
781	110.68
782	107.45
783	109.35
784	115.14
785	109.5
786	110.67
787	109.54
788	104.65
789	106.87
790	108.95
791	109.92
792	103.68
793	100.5
794	106.53
795	101.16
796	110.01
797	105.64
798	105.84
799	107.37
800	99.962
801	105.9
802	102.08
803	100.95
804	108.76
805	108.56
806	103.42
807	104.06
808	105.31
809	104.15
810	101.35
811	99.359
812	104.64
813	103
814	96.227
815	100.54
816	105.87
817	104.49
818	101.87
819	98.96
820	101.91
821	103.07
822	97.598
823	99.038
824	101.43
825	100.79
826	100.65
827	106.54
828	105.71
829	101.69
830	99.874
831	101.72
832	98.743
833	102.02
834	105.68
835	101.48
836	107.35
837	104.26
838	100.29
839	100.57
840	98.833
841	103.48
842	105.83
843	101.1
844	103.05
845	105.14
846	106.52
847	103.63
848	106.04
849	108.3
850	103.04
851	103.89
852	103.28
853	100.92
854	101.43
855	105.23
856	109.26
857	105.42
858	108.34
859	106.66
860	107.22
861	110.87
862	112.45
863	110.69
864	108.73
865	110.66
866	112.19
867	108.84
868	103.93
869	109.25
870	103.15
871	105.56
872	109.01
873	106.96
874	102.26
875	105.73
876	104.88
877	113.1
878	105.9
879	107.07
880	107.68
881	105.2
882	104.9
883	102.46
884	105.43
885	106.38
886	105.75
887	103.68
888	104.8
889	107.13
890	108.5
891	101.71
892	107.26
893	109.72
894	106.85
895	109.1
896	108.89
897	105.92
898	108.21
899	109.37
900	105.85
901	100.35
902	100.87
903	106.44
904	111.16
905	105.18
906	104.66
907	106.61
908	108.3
909	110.23
910	110.24
911	107.63
912	105.62
913	106.34
914	112.28
915	111.44
916	102.56
917	107.32
918	107.5
919	108.7
920	107.96
921	111.53
922	112.86
923	109.7
924	109.31
925	112.63
926	111.52
927	111.83
928	112.18
929	111.95
930	113.13
931	109.01
932	109.21
933	107.53
934	107.59
935	113.75
936	118.32
937	111.5
938	109.31
939	110.25
940	109.1
941	111.3
942	105.29
943	109.82
944	108.64
945	107.07
946	109.7
947	105.24
948	108.07
949	108.04
950	114.1
951	108.99
952	107.92
953	112.12
954	108.06
955	104.56
956	106.71
957	104.39
958	103.39
959	107.07
960	104.85
961	103.99
962	110.85
963	108.46
964	103.42
965	104.81
966	109.94
967	104.29
968	107.37
969	105.48
970	103.92
971	102.41
972	104.11
973	104.46
974	106.7
975	107.13
976	106.73
977	105.62
978	104.93
979	107.02
980	106.01
981	105.78
982	106.56
983	108.78
984	111.59
985	99.808
986	107.22
987	105.82
988	107.11
989	109.49
990	102.74
991	110.11
992	106.79
993	103.16
994	108.95
995	105.71
996	109.07
997	105.2
998	108.08
999	105.4
1000	105.93
1001	100.45
1002	111.82
1003	105.38
1004	105.02
1005	103.94
1006	105.42
1007	110.48
1008	107.04
1009	109.28
1010	107.84
1011	107.25
1012	100.26
1013	106.09
1014	109.57
1015	105.57
1016	107.08
1017	102.55
1018	108.41
1019	105.51
1020	107.4
1021	108.69
1022	109.08
1023	99.688
1024	108.52
1025	110.02
1026	106.93
1027	105.7
1028	105.36
1029	108.56
1030	102.7
1031	109.4
1032	105.97
1033	106.67
1034	103.41
1035	109.41
1036	103.69
1037	107.6
1038	105.47
1039	100.48
1040	105.68
1041	107.07
1042	105.41
1043	104.75
1044	107.02
1045	102.69
1046	103.56
1047	106.29
1048	105.4
1049	103.86
1050	103.55
1051	102.66
1052	104.66
1053	103.04
1054	102.72
1055	107.45
1056	108.39
1057	96.77
1058	100.84
1059	101.85
1060	104.41
1061	103.96
1062	106.82
1063	102.31
1064	103.98
1065	106.71
1066	100.54
1067	102.16
1068	105.4
1069	101.07
1070	101.57
1071	106.87
1072	104.06
1073	101.55
1074	99.628
1075	101.77
1076	102.38
1077	101.86
1078	100.93
1079	105.93
1080	99.129
1081	106
1082	94.282
1083	104.17
1084	106.23
1085	104.88
1086	105.79
1087	106.46
1088	100.99
1089	112.95
1090	107.08
1091	112.5
1092	115.13
1093	118.31
1094	113.03
1095	105.04
1096	102.53
1097	109.5
1098	101.95
1099	109.78
1100	105.66
1101	108.41
1102	108.11
1103	105.6
1104	109.04
1105	107.62
1106	106.58
1107	107.65
1108	108.71
1109	105.5
1110	110.56
1111	107.23
1112	110.39
1113	105.48
1114	109.94
1115	103.94
1116	103.14
1117	105.21
1118	106.34
1119	104.57
1120	102.56
1121	103.64
1122	101.28
1123	104.7
1124	109.98
1125	105.7
1126	105.99
1127	105.54
1128	105.89
1129	111.16
1130	105.33
1131	110.36
1132	111.31
1133	108.24
1134	109.81
1135	107.21
1136	111.48
1137	111.3
1138	107.49
1139	108.88
1140	107.96
1141	107.63
1142	111.42
1143	106.34
1144	109.8
1145	112.7
1146	108.08
1147	108.33
1148	109.44
1149	105.87
1150	113.84
1151	108.89
1152	108.25
1153	109.08
1154	104.32
1155	106.49
1156	108.67
1157	103.1
1158	103.12
1159	108.38
1160	105.97
1161	109.66
1162	107.63
1163	112.35
1164	107.75
1165	110.68
1166	103.4
1167	108.56
1168	104.34
1169	108.01
1170	107.94
1171	110.29
1172	111.23
1173	117.86
1174	112.01
1175	117.03
1176	117.46
1177	114.67
1178	115.15
1179	116.05
1180	115.74
1181	118.99
1182	114.81
1183	113.85
1184	115.96
1185	113.58
1186	114.6
1187	111.38
1188	115.5
1189	110.92
1190	111.65
1191	113.61
1192	117.55
1193	117.9
1194	116.49
1195	122.42
1196	113.92
1197	116.76
1198	118.88
1199	124.32
1200	127.79
1201	124.05
1202	124.67
1203	126.93
1204	126.45
1205	124.89
1206	125.83
1207	120.34
1208	125.39
1209	123.45
1210	118.44
1211	114.63
1212	120.37
1213	121.31
1214	118.21
1215	119.1
1216	129.19
1217	117.77
1218	119.7
1219	115.58
1220	119.58
1221	119.53
1222	120.66
1223	118.97
1224	120.29
1225	115.11
1226	124.27
1227	123.71
1228	122.27
1229	125.53
1230	132.86
1231	130.93
1232	131.52
1233	128.8
1234	127.99
1235	128.4
1236	131.2
1237	130.42
1238	135.03
1239	136.12
1240	131.49
1241	130.14
1242	132.67
1243	136.41
1244	142.4
1245	139.81
1246	135.05
1247	138.39
1248	139.54
1249	136.93
1250	137.8
1251	139.78
1252	138.46
1253	138.23
1254	137.22
1255	141.03
1256	141.16
1257	144.51
1258	132.8
1259	135.63
1260	136.4
1261	137.81
1262	133.54
1263	139.73
1264	136.94
1265	139.61
1266	132.55
1267	143.31
1268	139.96
1269	142.06
1270	142.06
1271	140.52
1272	142.96
1273	142.63
1274	141.27
1275	142.98
1276	140.8
1277	142.63
1278	140.49
1279	144.28
1280	139.13
1281	139.72
1282	141.72
1283	142.89
1284	141.81
1285	144.9
1286	142.75
1287	139.67
1288	144.79
1289	142
1290	143.9
1291	145.26
1292	143.22
1293	147.23
1294	143.54
1295	138.23
1296	143.72
1297	145.48
1298	147.29
1299	137.23
1300	145.93
1301	140.93
1302	143.45
1303	139.99
1304	140.69
1305	145.91
1306	143.67
1307	143.86
1308	141.91
1309	145.9
1310	145.36
1311	143.22
1312	142.9
1313	136.48
1314	144.63
1315	145.95
1316	146.3
1317	142.91
1318	143.2
1319	140.59
1320	142.87
1321	139.84
1322	143.47
1323	139.69
1324	139.27
1325	142.67
1326	142.67
1327	143.29
1328	140.48
1329	142.77
1330	149.75
1331	144.26
1332	142.18
1333	140.8
1334	142.6
1335	139.03
1336	143.44
1337	143.1
1338	147.3
1339	145.79
1340	142.49
1341	136.98
1342	143.33
1343	146.77
1344	147.63
1345	152.22
1346	148.05
1347	153.4
1348	148.83
1349	147.69
1350	152.5
1351	144.19
1352	154.19
1353	151.75
1354	152.21
1355	146.94
1356	148.3
1357	147.51
1358	144.15
1359	144.66
1360	148.49
1361	152.45
1362	147.72
1363	152.28
1364	147
1365	146.07
1366	150.21
1367	143.84
1368	154.06
1369	158.7
1370	155.42
1371	158.6
1372	158.42
1373	154.95
1374	152.95
1375	150.82
1376	151.71
1377	150.74
1378	155.66
1379	154.48
1380	151.05
1381	156.87
1382	151.4
1383	153.18
1384	154.19
1385	151.76
1386	147.87
1387	154.97
1388	156.37
1389	153.67
1390	154.56
1391	152.13
1392	148.62
1393	146.3
1394	132.89
1395	127.96
1396	126.54
1397	129.56
1398	128.1
1399	130.37
1400	127.69
1401	127.52
1402	131.04
1403	131.46
1404	129.25
1405	129.71
1406	131.01
1407	127.95
1408	129.66
1409	126.54
1410	126.93
1411	127.25
1412	130.8
1413	126.34
1414	127.02
1415	129.51
1416	126.09
1417	120.98
1418	133.11
1419	148.44
1420	148.44
1421	144.87
1422	151.59
1423	148.08
1424	147.46
1425	146.72
1426	145.38
1427	145.02
1428	141.77
1429	140.69
1430	146.81
1431	145.09
1432	143.79
1433	147.28
1434	158.83
1435	156.79
1436	158.75
1437	153.48
1438	157.99
1439	164.41
1440	157.49
1441	153.62
1442	155.41
1443	157.34
1444	151.43
1445	154.87
1446	158.75
1447	153.59
1448	152.52
1449	156.94
1450	159.76
1451	161.13
1452	155.69
1453	158.95
1454	158.62
1455	153.63
1456	159.78
1457	159.36
1458	163.24
1459	161.88
1460	160.73
1461	161.39
1462	161.91
1463	159.88
1464	162.19
1465	159.92
1466	159.34
1467	157.33
1468	156.11
1469	161.69
1470	161.53
1471	164.35
1472	159.18
1473	161.58
1474	155.92
1475	156.95
1476	157.89
1477	155.28
1478	147.11
1479	152.86
1480	159.67
1481	154.33
1482	153.81
1483	155.19
1484	156.65
1485	154.61
1486	153.34
1487	154.51
1488	158.47
1489	153.33
1490	154.65
1491	159.93
1492	152.37
1493	153.81
1494	154.54
1495	159.67
1496	151.47
1497	149.98
1498	149.62
1499	155.19
1500	149.56
1501	152.5
1502	162.56
1503	157.25
1504	155.53
1505	156.23
1506	164.83
1507	157.03
1508	157.1
1509	162.38
1510	155.05
1511	146.3
1512	146.51
1513	146.68
1514	145.25
1515	142.64
1516	145.22
1517	144.36
1518	144.63
1519	142.95
1520	144.55
1521	143.25
1522	143.5
1523	150.12
1524	146.16
1525	143.78
1526	145.08
1527	143.86
1528	146.99
1529	144.87
1530	147.27
1531	141.74
1532	146.14
1533	140.45
1534	145.35
1535	143.84
1536	145.81
1537	148.7
1538	147.77
1539	149.9
1540	146.65
1541	146.76
1542	142.75
1543	150.47
1544	143.93
1545	147.09
1546	144.59
1547	145.4
1548	144.28
1549	142.55
1550	146.77
1551	147
1552	150.11
1553	139.78
1554	146.66
1555	143.82
1556	144.47
1557	144.31
1558	146.82
1559	145.64
1560	144.78
1561	145.66
1562	143.55
1563	144.92
1564	144.93
1565	141.42
1566	148.14
1567	142.47
1568	145.44
1569	142.82
1570	147.4
1571	140.63
1572	146.5
1573	151.16
1574	151.51
1575	153.92
1576	148.85
1577	149
1578	153.08
1579	155.1
1580	154.08
1581	148.35
1582	148.54
1583	148.94
1584	150.66
1585	156.73
1586	149.61
1587	148.67
1588	151.85
1589	151.72
1590	156.11
1591	147.69
1592	148.05
1593	150.47
1594	150.86
1595	153.33
1596	150.77
1597	153.29
1598	156.38
1599	155.72
1600	149.98
1601	151.4
1602	151.17
1603	152.24
1604	148.72
1605	154.35
1606	144.87
1607	152.3
1608	149
1609	149.32
1610	147.31
1611	152.06
1612	152.46
1613	145.43
1614	149.9
1615	155.5
1616	152.44
1617	153.09
1618	146.55
1619	153.96
1620	151.42
1621	153.38
1622	150.9
1623	154.47
1624	152.79
1625	151.82
1626	154.94
1627	153.65
1628	155.07
1629	150.74
1630	150.14
1631	153.34
1632	147.01
1633	152.41
1634	167.04
1635	173.08
1636	162.22
1637	164.8
1638	159.99
1639	168.6
1640	182.43
1641	181.16
1642	186.12
1643	181.54
1644	184.12
1645	185.77
1646	183.85
1647	192.05
1648	185.33
1649	188.85
1650	179.94
1651	181.28
1652	182.33
1653	183.26
1654	182.79
1655	181.7
1656	186.87
1657	188.28
1658	184.56
1659	184.72
1660	185.96
1661	186.32
1662	185.73
1663	180.58
1664	179.41
1665	183.57
1666	182.96
1667	176.37
1668	179.18
1669	179.43
1670	176.19
1671	175.87
1672	179.58
1673	180.35
1674	176.2
1675	183.13
1676	182.41
1677	179.42
1678	184.64
1679	182.83
1680	183.6
1681	186.11
1682	182.44
1683	180.37
1684	181.86
1685	182.58
1686	181.05
1687	181.57
1688	181.12
1689	179.99
1690	179.68
1691	179.56
1692	184.18
1693	177.21
1694	175
1695	178.4
1696	181.84
1697	180.92
1698	181.07
1699	181.81
1700	177.54
1701	174.56
1702	184.56
1703	180.42
1704	176.86
1705	174.96
1706	179.24
1707	176.81
1708	175.21
1709	179.36
1710	179.6
1711	185.39
1712	187.81
1713	180.98
1714	183.19
1715	182.83
1716	182.1
1717	182.31
1718	183.84
1719	186.87
1720	186.03
1721	182.59
1722	185.24
1723	183.73
1724	183.66
1725	179.81
1726	183.63
1727	183.36
1728	187.82
1729	186.18
1730	182.54
1731	191.67
1732	186
1733	185.8
1734	186.88
1735	188.38
1736	187.39
1737	186.98
1738	183.76
1739	184.87
1740	185.3
1741	186.64
1742	185.63
1743	181.74
1744	184.28
1745	184.53
1746	181.11
1747	185.19
1748	184.81
1749	184.46
1750	184.72
1751	186.55
1752	188.12
1753	186.87
1754	182.59
1755	189.91
1756	183.63
1757	185.89
1758	188.07
1759	185.24
1760	190.72
1761	191.71
